TITLE,
DATA TYPE,
ORIGIN,JASCO
OWNER,
DATE,20/03/09
TIME,16:18:09
SPECTROMETER/DATA SYSTEM,
LOCALE,1033
RESOLUTION,
DELTAX,-1
XUNITS,NANOMETERS
YUNITS,CD [mdeg]
Y2UNITS,HT [V]
Y3UNITS,ABSORBANCE
FIRSTX,  500.0000
LASTX,  185.0000
NPOINTS,     316
FIRSTY,     1.50151
MAXY,     1.62832
MINY,    -0.91989
XYDATA
500.0000,1.50151,288.865,1.15132
499.0000,1.5318,288.352,1.14572
498.0000,1.44937,287.668,1.13823
497.0000,1.48304,286.713,1.12775
496.0000,1.53448,285.579,1.11528
495.0000,1.59541,284.604,1.10452
494.0000,1.6218,284.116,1.09912
493.0000,1.5729,283.786,1.09547
492.0000,1.5976,283.583,1.09322
491.0000,1.62832,283.584,1.09322
490.0000,1.60656,283.808,1.09571
489.0000,1.51164,284.062,1.09852
488.0000,1.56391,283.749,1.09506
487.0000,1.54321,282.9,1.08563
486.0000,1.55281,281.882,1.07431
485.0000,1.53688,280.843,1.06271
484.0000,1.49542,279.977,1.05303
483.0000,1.5553,279.564,1.0484
482.0000,1.54562,279.476,1.04741
481.0000,1.51777,279.579,1.04857
480.0000,1.57535,279.835,1.05144
479.0000,1.53121,279.991,1.05319
478.0000,1.48925,279.864,1.05177
477.0000,1.455,278.453,1.03592
476.0000,1.45809,277.204,1.02183
475.0000,1.4371,276.211,1.0106
474.0000,1.38621,274.97,0.996507
473.0000,1.38259,273.535,0.980152
472.0000,1.44281,271.864,0.961017
471.0000,1.38645,270.399,0.944158
470.0000,1.4645,270.485,0.945148
469.0000,1.42132,270.424,0.944452
468.0000,1.402,270.244,0.942371
467.0000,1.43463,270.268,0.942646
466.0000,1.48875,270.587,0.946326
465.0000,1.52318,271.549,0.957402
464.0000,1.48729,272.626,0.969758
463.0000,1.5024,273.046,0.974559
462.0000,1.49523,273.085,0.975007
461.0000,1.47627,273.234,0.976718
460.0000,1.4264,273.75,0.982603
459.0000,1.31912,274.229,0.988074
458.0000,1.26859,274.425,0.990303
457.0000,1.25145,274.514,0.991316
456.0000,1.15852,274.191,0.987644
455.0000,1.18699,274.09,0.986483
454.0000,1.14138,273.573,0.980587
453.0000,1.17996,272.695,0.970546
452.0000,1.17848,272.601,0.969465
451.0000,1.14735,272.578,0.969204
450.0000,1.23123,272.605,0.969509
449.0000,1.2433,273.085,0.975013
448.0000,1.19268,273.315,0.977644
447.0000,1.31128,274.14,0.987052
446.0000,1.32837,274.486,0.990995
445.0000,1.38826,274.287,0.98873
444.0000,1.33412,274.009,0.985561
443.0000,1.26466,273.727,0.982349
442.0000,1.26467,273.364,0.978195
441.0000,1.26944,273.067,0.974805
440.0000,1.25251,272.896,0.97285
439.0000,1.19585,272.763,0.971321
438.0000,1.23725,272.656,0.970097
437.0000,1.2023,272.549,0.968879
436.0000,1.21157,272.545,0.968825
435.0000,1.21202,272.565,0.969057
434.0000,1.15711,272.478,0.968057
433.0000,1.13688,272.301,0.966032
432.0000,1.15725,272.107,0.963808
431.0000,1.16406,271.898,0.961408
430.0000,1.17984,271.652,0.958581
429.0000,1.2243,271.404,0.955731
428.0000,1.23311,271.16,0.952925
427.0000,1.22449,270.86,0.949474
426.0000,1.2747,270.583,0.946286
425.0000,1.31158,270.271,0.942677
424.0000,1.20903,269.897,0.938364
423.0000,1.17332,269.409,0.932721
422.0000,1.16338,269.034,0.928384
421.0000,1.10576,268.813,0.925829
420.0000,1.07522,268.598,0.923332
419.0000,1.01195,268.402,0.921056
418.0000,0.972749,268.25,0.91929
417.0000,0.999771,268.208,0.918805
416.0000,0.947569,268.174,0.918415
415.0000,0.959196,267.998,0.916371
414.0000,0.953327,267.81,0.914183
413.0000,0.976373,267.581,0.911516
412.0000,0.941665,267.351,0.908839
411.0000,0.939288,267.198,0.90706
410.0000,0.874814,267.088,0.905779
409.0000,0.861004,267.02,0.904987
408.0000,0.886527,266.905,0.903641
407.0000,0.921433,266.78,0.902187
406.0000,0.929209,266.674,0.900952
405.0000,0.912213,266.528,0.899246
404.0000,0.954185,266.279,0.896342
403.0000,0.951302,266.008,0.893174
402.0000,0.958097,265.688,0.889429
401.0000,0.91319,265.341,0.885373
400.0000,0.881046,264.978,0.881108
399.0000,0.876195,264.677,0.877585
398.0000,0.882507,264.465,0.87509
397.0000,0.934992,264.312,0.873293
396.0000,0.919111,264.227,0.8723
395.0000,0.909494,264.239,0.872433
394.0000,0.919523,264.284,0.872969
393.0000,0.947257,264.352,0.873762
392.0000,0.98074,264.404,0.874377
391.0000,0.962115,264.419,0.874554
390.0000,0.987925,264.422,0.874587
389.0000,0.963566,264.404,0.874381
388.0000,1.00201,264.348,0.873719
387.0000,0.936803,264.269,0.872785
386.0000,0.953551,264.121,0.871049
385.0000,0.944659,263.933,0.868835
384.0000,0.955516,263.743,0.8666
383.0000,0.83716,263.552,0.864347
382.0000,0.842148,263.376,0.862278
381.0000,0.882364,263.182,0.859991
380.0000,0.906055,263.038,0.858297
379.0000,0.885908,262.91,0.856782
378.0000,0.852103,262.801,0.855489
377.0000,0.900577,262.705,0.854358
376.0000,0.992148,262.608,0.85321
375.0000,1.00103,262.509,0.852048
374.0000,0.933352,262.386,0.850588
373.0000,0.819557,262.289,0.849444
372.0000,0.825545,262.202,0.848413
371.0000,0.867416,262.104,0.847256
370.0000,0.890978,262,0.846029
369.0000,0.881268,261.899,0.844832
368.0000,0.936546,261.854,0.844299
367.0000,0.950588,261.795,0.843601
366.0000,1.03937,261.724,0.842759
365.0000,0.9921,261.66,0.841995
364.0000,0.915421,261.58,0.841052
363.0000,0.950255,261.533,0.840485
362.0000,0.8567,261.478,0.839839
361.0000,0.836863,261.432,0.839296
360.0000,0.856577,261.388,0.838766
359.0000,0.881373,261.356,0.838391
358.0000,0.897437,261.355,0.83838
357.0000,0.899314,261.357,0.838398
356.0000,0.841309,261.351,0.83833
355.0000,0.911442,261.359,0.838421
354.0000,0.877976,261.355,0.838374
353.0000,0.833907,261.361,0.838446
352.0000,0.831034,261.376,0.838633
351.0000,0.749281,261.367,0.838527
350.0000,0.76416,261.341,0.838215
349.0000,0.881846,261.331,0.838094
348.0000,0.876682,261.316,0.837921
347.0000,0.854105,261.283,0.83753
346.0000,0.911313,261.26,0.83725
345.0000,0.857426,261.213,0.836699
344.0000,0.840318,261.184,0.836355
343.0000,0.850999,261.157,0.83603
342.0000,0.753391,261.106,0.835425
341.0000,0.737257,261.087,0.835195
340.0000,0.744665,261.045,0.834694
339.0000,0.774586,261.039,0.834627
338.0000,0.804977,261.039,0.834634
337.0000,0.783974,261.067,0.834959
336.0000,0.785854,261.158,0.836039
335.0000,0.790543,261.31,0.837849
334.0000,0.818442,261.533,0.840489
333.0000,0.846979,261.839,0.844115
332.0000,0.771426,262.254,0.849034
331.0000,0.794393,262.776,0.855204
330.0000,0.851052,263.464,0.863318
329.0000,0.907948,264.241,0.872464
328.0000,0.870817,265.125,0.882836
327.0000,0.838057,266.097,0.894219
326.0000,0.766075,267.137,0.906353
325.0000,0.816991,268.217,0.918912
324.0000,0.730708,269.334,0.931852
323.0000,0.716241,270.341,0.943489
322.0000,0.67527,271.286,0.95437
321.0000,0.679131,272.085,0.963551
320.0000,0.65764,272.759,0.971282
319.0000,0.660373,273.24,0.976783
318.0000,0.716741,273.523,0.980018
317.0000,0.683926,273.686,0.981878
316.0000,0.62088,273.747,0.98257
315.0000,0.574051,273.809,0.983276
314.0000,0.467443,273.857,0.983833
313.0000,0.534029,273.912,0.984461
312.0000,0.520968,273.999,0.985445
311.0000,0.443018,274.068,0.986233
310.0000,0.444295,274.115,0.986775
309.0000,0.444587,274.103,0.986631
308.0000,0.493055,273.959,0.984997
307.0000,0.499391,273.692,0.981948
306.0000,0.45382,273.327,0.977778
305.0000,0.390926,272.86,0.972435
304.0000,0.474244,272.339,0.966462
303.0000,0.470224,271.749,0.959696
302.0000,0.443531,271.128,0.952553
301.0000,0.415505,270.48,0.945094
300.0000,0.405242,269.844,0.937756
299.0000,0.437811,269.189,0.930183
298.0000,0.411495,268.547,0.922745
297.0000,0.499648,267.936,0.915644
296.0000,0.534426,267.305,0.908311
295.0000,0.530006,266.635,0.900501
294.0000,0.500844,265.911,0.892038
293.0000,0.537354,265.301,0.884904
292.0000,0.570815,264.695,0.877794
291.0000,0.574045,264.108,0.870897
290.0000,0.533115,263.544,0.864255
289.0000,0.457449,263,0.857842
288.0000,0.413718,262.556,0.8526
287.0000,0.449027,262.121,0.847459
286.0000,0.426666,261.665,0.842053
285.0000,0.379907,261.237,0.836977
284.0000,0.387002,260.832,0.832168
283.0000,0.423128,260.44,0.827507
282.0000,0.434789,260.07,0.823101
281.0000,0.430662,259.737,0.819139
280.0000,0.433479,259.424,0.815399
279.0000,0.443268,259.128,0.811871
278.0000,0.43494,258.87,0.808786
277.0000,0.356909,258.62,0.805796
276.0000,0.345473,258.425,0.803454
275.0000,0.316082,258.216,0.800949
274.0000,0.31825,258.044,0.798896
273.0000,0.293413,257.922,0.797424
272.0000,0.273604,257.843,0.796479
271.0000,0.335178,257.84,0.796447
270.0000,0.359405,257.892,0.79707
269.0000,0.400122,257.965,0.797945
268.0000,0.328537,258.075,0.79926
267.0000,0.281487,258.239,0.801226
266.0000,0.324716,258.419,0.803392
265.0000,0.227588,258.647,0.806112
264.0000,0.230518,258.933,0.809533
263.0000,0.249973,259.234,0.813131
262.0000,0.211412,259.583,0.817297
261.0000,0.314635,259.989,0.822136
260.0000,0.312451,260.386,0.826868
259.0000,0.341812,260.759,0.831296
258.0000,0.329258,261.127,0.835674
257.0000,0.27303,261.486,0.839934
256.0000,0.245399,261.811,0.843781
255.0000,0.218953,262.122,0.847471
254.0000,0.233775,262.395,0.850699
253.0000,0.290486,262.672,0.85397
252.0000,0.281395,262.89,0.856547
251.0000,0.240289,263.065,0.858613
250.0000,0.308701,263.22,0.860443
249.0000,0.278377,263.338,0.86183
248.0000,0.273558,263.452,0.86317
247.0000,0.238859,263.579,0.864665
246.0000,0.236379,263.689,0.865966
245.0000,0.258968,263.854,0.867907
244.0000,0.31665,264.105,0.870865
243.0000,0.206408,264.368,0.873949
242.0000,0.213685,264.759,0.878548
241.0000,0.180738,265.181,0.88349
240.0000,0.171352,265.67,0.889219
239.0000,0.125421,266.272,0.89626
238.0000,0.0372598,266.983,0.904559
237.0000,0.0865456,267.768,0.913693
236.0000,0.123379,268.694,0.924448
235.0000,0.0836191,269.859,0.93793
234.0000,0.0631196,270.881,0.949719
233.0000,-0.0213606,272.091,0.963624
232.0000,-0.0250938,273.526,0.980054
231.0000,-0.0798463,275.303,1.0003
230.0000,-0.159047,277.17,1.02144
229.0000,-0.193267,279.334,1.04582
228.0000,-0.212553,281.791,1.0733
227.0000,-0.323518,284.462,1.10295
226.0000,-0.317319,287.715,1.13874
225.0000,-0.437417,290.805,1.17244
224.0000,-0.529253,294.166,1.20875
223.0000,-0.403009,297.604,1.24554
222.0000,-0.38465,300.9,1.28048
221.0000,-0.308268,304.528,1.31857
220.0000,-0.340011,308.314,1.35791
219.0000,-0.305965,311.563,1.39135
218.0000,-0.18984,314.85,1.4249
217.0000,-0.170324,318.016,1.45693
216.0000,-0.0860385,321.178,1.48867
215.0000,-0.0714875,324.752,1.52421
214.0000,-0.0626945,328.038,1.55661
213.0000,0.152452,331.509,1.59054
212.0000,0.231171,335.172,1.62602
211.0000,0.191417,339.356,1.66616
210.0000,0.311347,343.485,1.70536
209.0000,0.335512,348.365,1.75119
208.0000,0.301696,353.786,1.80148
207.0000,0.280361,359.884,1.85728
206.0000,0.409104,365.615,1.909
205.0000,0.344569,372.437,1.96969
204.0000,0.355644,378.893,2.02627
203.0000,0.483666,386.349,2.09062
202.0000,0.562636,393.324,2.14988
201.0000,0.639154,400.553,2.21037
200.0000,0.691154,407.758,2.26975
199.0000,0.84844,415.961,2.33629
198.0000,1.17649,423.399,2.39569
197.0000,1.323,432.84,2.46982
196.0000,1.12123,441.336,2.53537
195.0000,1.10667,451.918,2.61554
194.0000,1.11601,465.227,2.71416
193.0000,1.08804,479.819,2.81958
192.0000,0.85364,497.466,2.94352
191.0000,0.873253,526.256,3.13793
190.0000,0.614324,557.527,3.33915
189.0000,0.545166,596.151,3.57485
188.0000,0.124758,662.329,3.95006
187.0000,-0.355167,768.356,4.4893
186.0000,-0.593593,866.327,4.93363
185.0000,-0.919888,959.127,5.31636

##### Extended Information
[Comments]
Sample name
Comment
User
Division
Company,Saint Mary's College

[Detailed Information]
Creation date,3/9/2020 4:18 PM

Data array type,Linear data array * 3
Horizontal axis,Wavelength [nm]
Vertical axis(1),CD [mdeg]
Vertical axis(2),HT [V]
Vertical axis(3),Abs
Start,500 nm
End,185 nm
Data interval,1 nm
Data points,316     

[Measurement Information]
Instrument name,J-1500
Model name,J-1500
Serial No.,B051061638

Detector,PM-539
Detector S/N,B051061638
  Lock-in amp.,X mode
  HT volt,Auto

Accessory,PTC-517
Accessory S/N,B026561646
  Temperature,24.03 C
  Control sensor,Holder
  Monitor sensor,Holder

Measurement date,3/9/2020 4:17 PM

CD Overload detect,2
Photometric mode,CD, HT, Abs
Measure range,500 - 185 nm
Data pitch,1 nm
CD scale,20 mdeg/0.05 dOD
FL scale,20 mdeg/0.05 dOD
D.I.T.,4 sec
Bandwidth,1.00 nm
Start mode,Immediately
Scanning mode,Continuous
Scanning speed,100 nm/min
Baseline correction,None
Shutter control,Auto
Accumulations,1
N2 Flowmeter,Manual


