TITLE,
DATA TYPE,
ORIGIN,JASCO
OWNER,
DATE,20/03/09
TIME,15:52:46
SPECTROMETER/DATA SYSTEM,
LOCALE,1033
RESOLUTION,
DELTAX,-1
XUNITS,NANOMETERS
YUNITS,CD [mdeg]
Y2UNITS,HT [V]
Y3UNITS,ABSORBANCE
FIRSTX,  500.0000
LASTX,  185.0000
NPOINTS,     316
FIRSTY,     1.22278
MAXY,     3.05087
MINY,    -0.78182
XYDATA
500.0000,1.22278,290.557,1.16974
499.0000,1.19802,290.043,1.16416
498.0000,1.27821,289.354,1.15665
497.0000,1.20053,288.416,1.14642
496.0000,1.09057,287.242,1.13356
495.0000,1.08512,286.298,1.12319
494.0000,1.07292,285.794,1.11765
493.0000,1.12238,285.43,1.11363
492.0000,1.09731,285.208,1.11118
491.0000,1.07652,285.19,1.11099
490.0000,1.10304,285.415,1.11346
489.0000,1.18546,285.672,1.11631
488.0000,1.23437,285.374,1.11301
487.0000,1.16125,284.525,1.10364
486.0000,1.20036,283.555,1.09291
485.0000,1.23345,282.551,1.08176
484.0000,1.27126,281.665,1.0719
483.0000,1.17053,281.255,1.06732
482.0000,1.11896,281.169,1.06636
481.0000,1.05505,281.28,1.0676
480.0000,1.12091,281.523,1.07031
479.0000,1.06204,281.637,1.07158
478.0000,1.0698,281.514,1.07021
477.0000,1.03047,280.131,1.05476
476.0000,1.074,278.822,1.04006
475.0000,1.0877,277.83,1.0289
474.0000,1.02959,276.596,1.01496
473.0000,0.991646,275.161,0.998683
472.0000,0.953044,273.525,0.980033
471.0000,0.894948,272.036,0.96299
470.0000,0.935321,272.094,0.963657
469.0000,0.961072,272.072,0.963402
468.0000,1.00681,271.912,0.961564
467.0000,0.980466,271.9,0.961433
466.0000,1.00096,272.214,0.965027
465.0000,1.07215,273.163,0.9759
464.0000,1.08807,274.249,0.988298
463.0000,1.01924,274.663,0.993021
462.0000,0.994539,274.693,0.993362
461.0000,1.00438,274.847,0.995109
460.0000,0.97918,275.357,1.00091
459.0000,0.993353,275.855,1.00656
458.0000,0.945005,276.102,1.00936
457.0000,0.908794,276.205,1.01052
456.0000,0.941458,275.908,1.00716
455.0000,0.971284,275.816,1.00612
454.0000,0.902746,275.339,1.00071
453.0000,0.955197,274.476,0.990882
452.0000,0.914593,274.394,0.989955
451.0000,0.979054,274.362,0.98959
450.0000,1.02215,274.381,0.989803
449.0000,1.1134,274.896,0.995669
448.0000,1.15097,275.129,0.998319
447.0000,1.19157,275.986,1.00805
446.0000,1.09534,276.34,1.01205
445.0000,1.129,276.134,1.00973
444.0000,1.0749,275.895,1.00701
443.0000,1.05023,275.603,1.0037
442.0000,0.964537,275.263,0.999841
441.0000,0.899795,274.952,0.996304
440.0000,0.926911,274.756,0.99407
439.0000,0.949997,274.642,0.992782
438.0000,0.972165,274.533,0.991539
437.0000,1.00192,274.439,0.990459
436.0000,1.01136,274.412,0.990153
435.0000,1.09528,274.44,0.990477
434.0000,1.08894,274.346,0.989404
433.0000,1.10267,274.178,0.987489
432.0000,1.08381,273.997,0.985427
431.0000,1.05784,273.759,0.982708
430.0000,1.02106,273.513,0.979903
429.0000,1.06375,273.267,0.977087
428.0000,1.0002,272.979,0.973795
427.0000,0.997779,272.726,0.970896
426.0000,0.986344,272.461,0.967867
425.0000,0.915804,272.161,0.964428
424.0000,0.935524,271.791,0.960181
423.0000,0.887308,271.308,0.954633
422.0000,0.877247,270.969,0.950727
421.0000,0.871233,270.734,0.948019
420.0000,0.9025,270.524,0.945605
419.0000,0.902246,270.337,0.943441
418.0000,0.90291,270.208,0.941955
417.0000,0.973641,270.152,0.941311
416.0000,0.907693,270.141,0.941179
415.0000,0.881342,269.984,0.939375
414.0000,0.864723,269.796,0.937203
413.0000,0.873284,269.591,0.934835
412.0000,0.871755,269.35,0.932045
411.0000,0.796562,269.206,0.930377
410.0000,0.766008,269.103,0.929184
409.0000,0.891262,269.035,0.928397
408.0000,0.949604,268.915,0.927011
407.0000,0.916872,268.791,0.925565
406.0000,0.935556,268.684,0.924327
405.0000,0.974087,268.551,0.92279
404.0000,1.05306,268.304,0.919915
403.0000,0.951887,268.058,0.917059
402.0000,0.946544,267.758,0.913576
401.0000,0.925477,267.408,0.909504
400.0000,0.924764,267.053,0.905373
399.0000,0.912676,266.742,0.901749
398.0000,0.900496,266.519,0.899143
397.0000,0.958624,266.367,0.89737
396.0000,1.06509,266.284,0.896399
395.0000,1.03868,266.294,0.896511
394.0000,1.00918,266.364,0.897334
393.0000,1.02231,266.448,0.898318
392.0000,0.933172,266.505,0.898984
391.0000,0.900578,266.539,0.899377
390.0000,0.894227,266.565,0.899679
389.0000,0.809676,266.55,0.899502
388.0000,0.766189,266.474,0.898621
387.0000,0.774787,266.399,0.897741
386.0000,0.833039,266.279,0.896337
385.0000,0.916931,266.092,0.89416
384.0000,0.934645,265.929,0.892247
383.0000,0.899486,265.739,0.890027
382.0000,0.886581,265.574,0.888101
381.0000,0.941402,265.449,0.886632
380.0000,0.903638,265.296,0.884837
379.0000,0.894841,265.161,0.883257
378.0000,0.914405,265.042,0.881859
377.0000,0.900261,264.942,0.880689
376.0000,0.984823,264.836,0.879449
375.0000,1.03009,264.738,0.878304
374.0000,0.981476,264.595,0.876622
373.0000,1.02684,264.498,0.875484
372.0000,0.984137,264.405,0.874382
371.0000,0.928608,264.318,0.87336
370.0000,0.916518,264.224,0.872257
369.0000,0.893859,264.152,0.871412
368.0000,0.866229,264.097,0.870771
367.0000,0.887523,264.047,0.870177
366.0000,0.837505,263.997,0.869585
365.0000,0.848563,263.942,0.868945
364.0000,0.890238,263.879,0.868198
363.0000,0.838569,263.842,0.867772
362.0000,0.858603,263.796,0.86722
361.0000,0.803477,263.753,0.866718
360.0000,0.793616,263.729,0.866432
359.0000,0.760675,263.693,0.866017
358.0000,0.799501,263.652,0.865525
357.0000,0.855698,263.648,0.865487
356.0000,0.838289,263.614,0.865084
355.0000,0.870053,263.632,0.865298
354.0000,0.847185,263.634,0.865315
353.0000,0.859442,263.643,0.865429
352.0000,0.861294,263.68,0.865862
351.0000,0.819078,263.695,0.866042
350.0000,0.799952,263.703,0.866133
349.0000,0.862689,263.696,0.866053
348.0000,0.882948,263.696,0.866049
347.0000,0.870667,263.681,0.865877
346.0000,0.868212,263.665,0.86568
345.0000,0.869564,263.655,0.865565
344.0000,0.895774,263.681,0.865869
343.0000,0.859349,263.727,0.86641
342.0000,0.78689,263.805,0.867335
341.0000,0.774421,263.954,0.869087
340.0000,0.833084,264.193,0.871891
339.0000,0.817436,264.547,0.876059
338.0000,0.903299,265.109,0.882645
337.0000,0.976886,265.935,0.892326
336.0000,0.989558,267.092,0.905826
335.0000,1.05142,268.776,0.925393
334.0000,1.05131,271.095,0.952176
333.0000,1.08098,274.142,0.987081
332.0000,1.06198,278.253,1.03366
331.0000,1.01723,283.467,1.09193
330.0000,0.985829,290.083,1.1646
329.0000,1.05252,297.71,1.24666
328.0000,1.02393,306.14,1.33536
327.0000,1.17969,315.274,1.42921
326.0000,1.23161,324.834,1.52503
325.0000,1.12383,334.41,1.61867
324.0000,1.13255,343.856,1.70886
323.0000,1.05384,352.266,1.78744
322.0000,1.0335,359.782,1.85635
321.0000,0.894283,365.987,1.91234
320.0000,0.804303,370.946,1.95651
319.0000,0.567256,374.459,1.9875
318.0000,0.671003,376.83,2.00828
317.0000,0.675941,378.315,2.02124
316.0000,0.655847,379.295,2.02977
315.0000,0.812542,380.009,2.03597
314.0000,0.850554,380.614,2.04122
313.0000,0.790525,381.233,2.04658
312.0000,0.871726,381.843,2.05186
311.0000,0.832021,382.418,2.05682
310.0000,0.897824,382.722,2.05945
309.0000,0.841911,382.641,2.05875
308.0000,0.844253,381.956,2.05284
307.0000,0.882834,380.602,2.04111
306.0000,0.940977,378.453,2.02244
305.0000,1.05181,375.631,1.99778
304.0000,1.12608,372.336,1.9688
303.0000,1.02384,368.45,1.93434
302.0000,1.15475,364.337,1.89752
301.0000,1.05097,359.983,1.85818
300.0000,0.966841,355.483,1.81708
299.0000,0.914319,350.965,1.77539
298.0000,0.822864,346.429,1.73307
297.0000,0.707473,342.08,1.69206
296.0000,0.788998,337.753,1.65083
295.0000,0.752734,333.257,1.60751
294.0000,0.700013,328.614,1.56226
293.0000,0.811054,324.272,1.51945
292.0000,0.839841,319.881,1.47568
291.0000,0.785254,315.576,1.43227
290.0000,0.938739,311.371,1.38939
289.0000,0.94322,307.234,1.34673
288.0000,0.931834,303.366,1.30641
287.0000,0.8957,299.804,1.2689
286.0000,0.856694,296.397,1.23267
285.0000,0.839548,293.103,1.19731
284.0000,0.877545,290.08,1.16456
283.0000,0.901649,287.274,1.13391
282.0000,0.921919,284.653,1.10506
281.0000,1.02019,282.176,1.07758
280.0000,1.06066,279.908,1.05225
279.0000,1.19132,277.889,1.02956
278.0000,1.2338,276.079,1.0091
277.0000,1.17827,274.445,0.990535
276.0000,1.13556,272.925,0.973176
275.0000,1.16507,271.597,0.957946
274.0000,1.17118,270.469,0.944966
273.0000,1.18158,269.572,0.934612
272.0000,1.20087,268.983,0.927788
271.0000,1.18599,268.683,0.92432
270.0000,1.28561,268.74,0.924973
269.0000,1.32428,269.039,0.928438
268.0000,1.38544,269.53,0.934119
267.0000,1.38507,270.241,0.942342
266.0000,1.46682,271.214,0.953543
265.0000,1.50996,272.339,0.966461
264.0000,1.57823,273.661,0.981591
263.0000,1.5738,275.105,0.998046
262.0000,1.63995,276.652,1.0156
261.0000,1.57498,278.362,1.03489
260.0000,1.62707,280.011,1.05341
259.0000,1.65193,281.338,1.06824
258.0000,1.71132,282.545,1.08169
257.0000,1.71115,283.592,1.09332
256.0000,1.77159,284.577,1.10421
255.0000,1.85165,285.504,1.11445
254.0000,1.90142,286.368,1.12396
253.0000,1.93969,287.321,1.13443
252.0000,1.95255,288.182,1.14385
251.0000,2.01256,288.963,1.15239
250.0000,2.08663,289.547,1.15876
249.0000,2.01804,289.949,1.16313
248.0000,2.0317,290.253,1.16645
247.0000,2.09471,290.506,1.16919
246.0000,2.09545,290.758,1.17193
245.0000,2.05952,291.089,1.17552
244.0000,2.09583,291.514,1.18013
243.0000,2.15048,291.961,1.18496
242.0000,2.38424,292.493,1.19072
241.0000,2.43703,293.095,1.19721
240.0000,2.5111,293.758,1.20436
239.0000,2.63527,294.519,1.21254
238.0000,2.77355,295.496,1.22302
237.0000,2.86023,296.649,1.23535
236.0000,2.93784,298.133,1.25117
235.0000,2.92191,300.138,1.27243
234.0000,3.01236,302.046,1.29255
233.0000,3.05087,304.553,1.31882
232.0000,2.89985,307.821,1.35281
231.0000,2.82211,312.218,1.39807
230.0000,2.81448,317.078,1.44747
229.0000,2.69232,323.1,1.50782
228.0000,2.50809,330.111,1.57691
227.0000,2.42528,337.813,1.65141
226.0000,2.26807,346.91,1.73759
225.0000,2.24136,355.352,1.81589
224.0000,2.04029,364.023,1.8947
223.0000,1.79207,372.173,1.96736
222.0000,1.7672,379.167,2.02865
221.0000,1.82188,385.857,2.0864
220.0000,1.74607,391.641,2.13566
219.0000,1.85446,395.677,2.16966
218.0000,1.76863,399.075,2.19807
217.0000,1.96877,401.908,2.22161
216.0000,1.80227,404.49,2.24293
215.0000,1.67676,407.466,2.26736
214.0000,1.58808,410.578,2.29275
213.0000,1.57718,414.703,2.32616
212.0000,1.55947,420.366,2.37157
211.0000,1.53159,428.939,2.43935
210.0000,1.70697,439.425,2.52072
209.0000,1.57666,454.308,2.63343
208.0000,1.38756,472.951,2.77031
207.0000,1.15645,495.582,2.93046
206.0000,0.770033,517.784,3.08168
205.0000,0.388692,544.696,3.25777
204.0000,0.419413,570.098,3.41734
203.0000,0.451854,599.041,3.59195
202.0000,0.420097,625.41,3.7449
201.0000,0.180169,652.074,3.89407
200.0000,0.313065,678.221,4.03538
199.0000,0.736042,707.602,4.18873
198.0000,0.413903,734.783,4.32583
197.0000,0.316924,770.836,4.50113
196.0000,0.294531,805.161,4.66163
195.0000,0.438148,850.363,4.86427
194.0000,-0.0475799,908.592,5.1121
193.0000,-0.141541,961.208,5.32457
192.0000,-0.0662478,1006.36,5.49907
191.0000,-0.191845,1050.58,5.66353
190.0000,-0.568172,1072.4,5.74251
189.0000,-0.400711,1078.25,5.76344
188.0000,-0.660372,1078.53,5.76446
187.0000,-0.781821,1078.72,5.76513
186.0000,-0.659509,1078.8,5.76543
185.0000,-0.730106,1078.88,5.76568

##### Extended Information
[Comments]
Sample name
Comment
User
Division
Company,Saint Mary's College

[Detailed Information]
Creation date,3/9/2020 3:52 PM

Data array type,Linear data array * 3
Horizontal axis,Wavelength [nm]
Vertical axis(1),CD [mdeg]
Vertical axis(2),HT [V]
Vertical axis(3),Abs
Start,500 nm
End,185 nm
Data interval,1 nm
Data points,316     

[Measurement Information]
Instrument name,J-1500
Model name,J-1500
Serial No.,B051061638

Detector,PM-539
Detector S/N,B051061638
  Lock-in amp.,X mode
  HT volt,Auto

Accessory,PTC-517
Accessory S/N,B026561646
  Temperature,23.91 C
  Control sensor,Holder
  Monitor sensor,Holder

Measurement date,3/9/2020 3:50 PM

CD Overload detect,1
Photometric mode,CD, HT, Abs
Measure range,500 - 185 nm
Data pitch,1 nm
CD scale,20 mdeg/0.05 dOD
FL scale,20 mdeg/0.05 dOD
D.I.T.,4 sec
Bandwidth,1.00 nm
Start mode,Immediately
Scanning mode,Continuous
Scanning speed,100 nm/min
Baseline correction,None
Shutter control,Auto
Accumulations,1
N2 Flowmeter,Manual


