TITLE,
DATA TYPE,
ORIGIN,JASCO
OWNER,
DATE,20/03/09
TIME,15:08:13
SPECTROMETER/DATA SYSTEM,
LOCALE,1033
RESOLUTION,
DELTAX,-1
XUNITS,NANOMETERS
YUNITS,CD [mdeg]
Y2UNITS,HT [V]
Y3UNITS,ABSORBANCE
FIRSTX,  500.0000
LASTX,  185.0000
NPOINTS,     316
FIRSTY,     1.43556
MAXY,     1.47893
MINY,    -1.06583
XYDATA
500.0000,1.43556,288.187,1.14391
499.0000,1.34637,287.722,1.13882
498.0000,1.31675,287.046,1.13141
497.0000,1.30757,286.103,1.12105
496.0000,1.42535,284.977,1.10864
495.0000,1.46919,283.943,1.0972
494.0000,1.47893,283.399,1.09118
493.0000,1.46353,283.033,1.08711
492.0000,1.47602,282.812,1.08466
491.0000,1.36713,282.803,1.08456
490.0000,1.36702,283.008,1.08683
489.0000,1.31682,283.275,1.08979
488.0000,1.30635,283.054,1.08735
487.0000,1.29999,282.244,1.07834
486.0000,1.29321,281.249,1.06726
485.0000,1.31538,280.23,1.05586
484.0000,1.23933,279.29,1.04533
483.0000,1.30668,278.848,1.04036
482.0000,1.36005,278.721,1.03893
481.0000,1.34286,278.819,1.04003
480.0000,1.33739,279.064,1.04279
479.0000,1.30807,279.202,1.04434
478.0000,1.28722,279.122,1.04344
477.0000,1.33526,277.88,1.02946
476.0000,1.28491,276.547,1.0144
475.0000,1.27076,275.6,1.00366
474.0000,1.29321,274.395,0.989958
473.0000,1.27917,272.972,0.973718
472.0000,1.37062,271.342,0.955016
471.0000,1.33876,269.819,0.937465
470.0000,1.23991,269.741,0.93656
469.0000,1.24575,269.753,0.936702
468.0000,1.25438,269.562,0.934494
467.0000,1.25241,269.541,0.934251
466.0000,1.21896,269.825,0.937534
465.0000,1.17296,270.716,0.947808
464.0000,1.24279,271.807,0.960361
463.0000,1.17723,272.271,0.965686
462.0000,1.22695,272.292,0.965925
461.0000,1.22728,272.409,0.967272
460.0000,1.16758,272.911,0.973018
459.0000,1.14475,273.428,0.978934
458.0000,1.14679,273.698,0.982012
457.0000,1.22534,273.799,0.983163
456.0000,1.25158,273.547,0.980289
455.0000,1.18513,273.418,0.978815
454.0000,1.20417,273.01,0.974152
453.0000,1.2198,272.084,0.963542
452.0000,1.30008,271.964,0.962169
451.0000,1.29333,271.927,0.961736
450.0000,1.22593,271.949,0.961993
449.0000,1.09255,272.423,0.967424
448.0000,1.06222,272.645,0.969976
447.0000,1.04737,273.418,0.978811
446.0000,0.984899,273.864,0.983913
445.0000,0.956798,273.667,0.981659
444.0000,0.950401,273.412,0.978751
443.0000,1.00574,273.112,0.975322
442.0000,1.05427,272.763,0.971325
441.0000,1.16119,272.471,0.967976
440.0000,1.17699,272.27,0.96567
439.0000,1.23353,272.132,0.964093
438.0000,1.18183,272.041,0.963045
437.0000,1.17949,271.951,0.962017
436.0000,1.17156,271.929,0.961762
435.0000,1.15259,271.948,0.961977
434.0000,1.05778,271.866,0.96104
433.0000,1.07835,271.711,0.959261
432.0000,1.03715,271.51,0.956953
431.0000,1.0923,271.271,0.954198
430.0000,1.09123,271.03,0.951425
429.0000,1.07564,270.787,0.948634
428.0000,1.0502,270.517,0.945523
427.0000,1.03703,270.238,0.942298
426.0000,0.999585,269.974,0.939259
425.0000,1.039,269.673,0.935774
424.0000,1.07767,269.285,0.93129
423.0000,1.04085,268.805,0.925731
422.0000,1.05393,268.43,0.921385
421.0000,1.0352,268.201,0.918723
420.0000,1.05239,267.971,0.916048
419.0000,1.11494,267.761,0.913607
418.0000,1.0096,267.602,0.911762
417.0000,1.00025,267.563,0.911307
416.0000,1.04472,267.535,0.910984
415.0000,1.10422,267.374,0.909109
414.0000,1.07301,267.172,0.906761
413.0000,1.08469,266.97,0.904398
412.0000,1.08024,266.752,0.901861
411.0000,1.02622,266.585,0.899911
410.0000,1.03094,266.475,0.898634
409.0000,1.00282,266.417,0.897954
408.0000,0.972378,266.292,0.896499
407.0000,0.954033,266.17,0.895065
406.0000,0.933353,266.055,0.893728
405.0000,0.930307,265.914,0.892078
404.0000,0.962942,265.67,0.889221
403.0000,0.95301,265.395,0.885998
402.0000,0.888437,265.078,0.882289
401.0000,0.899885,264.715,0.878023
400.0000,0.803539,264.368,0.873954
399.0000,0.777696,264.04,0.870101
398.0000,0.797494,263.814,0.867431
397.0000,0.809619,263.667,0.865711
396.0000,0.803431,263.599,0.864901
395.0000,0.848439,263.632,0.865292
394.0000,0.911979,263.667,0.865706
393.0000,0.966846,263.739,0.866557
392.0000,0.97805,263.796,0.867224
391.0000,0.92072,263.82,0.86751
390.0000,0.878288,263.82,0.867507
389.0000,0.8372,263.798,0.867244
388.0000,0.747602,263.729,0.86644
387.0000,0.720761,263.645,0.865442
386.0000,0.738124,263.487,0.863589
385.0000,0.784545,263.303,0.861415
384.0000,0.792319,263.133,0.859406
383.0000,0.728175,262.93,0.857015
382.0000,0.743172,262.732,0.854678
381.0000,0.872953,262.574,0.852816
380.0000,0.918483,262.412,0.850896
379.0000,0.866478,262.303,0.849604
378.0000,0.880251,262.187,0.848235
377.0000,0.855633,262.084,0.847021
376.0000,0.893393,261.978,0.845757
375.0000,0.889832,261.882,0.844622
374.0000,0.876242,261.765,0.843235
373.0000,0.841726,261.672,0.842142
372.0000,0.86079,261.583,0.84108
371.0000,0.891661,261.472,0.839771
370.0000,0.877664,261.374,0.83861
369.0000,0.877622,261.275,0.837428
368.0000,0.847868,261.196,0.836493
367.0000,0.849311,261.16,0.836069
366.0000,0.885778,261.076,0.835071
365.0000,0.886813,261.008,0.834259
364.0000,0.859816,260.958,0.833668
363.0000,0.881706,260.905,0.833038
362.0000,0.871952,260.861,0.832508
361.0000,0.824721,260.823,0.832063
360.0000,0.814176,260.775,0.831493
359.0000,0.76737,260.74,0.83108
358.0000,0.7614,260.715,0.830781
357.0000,0.778026,260.71,0.830717
356.0000,0.812707,260.717,0.830805
355.0000,0.728142,260.692,0.830501
354.0000,0.742383,260.695,0.830539
353.0000,0.717119,260.695,0.830545
352.0000,0.718606,260.711,0.830736
351.0000,0.673021,260.711,0.830731
350.0000,0.767052,260.707,0.830687
349.0000,0.79631,260.692,0.830507
348.0000,0.838546,260.711,0.830733
347.0000,0.809958,260.676,0.830314
346.0000,0.895278,260.646,0.829954
345.0000,0.86605,260.589,0.829278
344.0000,0.873746,260.546,0.828776
343.0000,0.837968,260.503,0.828263
342.0000,0.814115,260.444,0.827559
341.0000,0.849637,260.371,0.826688
340.0000,0.874254,260.324,0.82613
339.0000,0.817417,260.262,0.825396
338.0000,0.80397,260.238,0.825103
337.0000,0.801697,260.186,0.824485
336.0000,0.805228,260.138,0.823909
335.0000,0.793911,260.128,0.82379
334.0000,0.72655,260.098,0.823432
333.0000,0.662099,260.073,0.823141
332.0000,0.632058,260.035,0.822682
331.0000,0.616592,259.98,0.822036
330.0000,0.614038,259.947,0.821639
329.0000,0.537458,259.893,0.820992
328.0000,0.497733,259.823,0.820157
327.0000,0.567127,259.755,0.81935
326.0000,0.588687,259.648,0.818079
325.0000,0.580058,259.562,0.817046
324.0000,0.555651,259.506,0.816382
323.0000,0.56332,259.463,0.815871
322.0000,0.598523,259.409,0.815221
321.0000,0.569067,259.373,0.814787
320.0000,0.516132,259.377,0.814842
319.0000,0.529177,259.379,0.814868
318.0000,0.554559,259.37,0.814762
317.0000,0.569748,259.32,0.81416
316.0000,0.515367,259.247,0.813294
315.0000,0.496499,259.213,0.812882
314.0000,0.577886,259.184,0.812539
313.0000,0.531321,259.151,0.812139
312.0000,0.456228,259.122,0.811791
311.0000,0.457334,259.107,0.811621
310.0000,0.43314,259.068,0.811144
309.0000,0.448262,259.056,0.811001
308.0000,0.425751,259.016,0.810526
307.0000,0.403386,258.932,0.809521
306.0000,0.476168,258.84,0.808422
305.0000,0.461323,258.764,0.80752
304.0000,0.459074,258.669,0.806373
303.0000,0.461057,258.589,0.805427
302.0000,0.496034,258.494,0.80428
301.0000,0.516903,258.397,0.803128
300.0000,0.496777,258.325,0.802266
299.0000,0.510107,258.242,0.801271
298.0000,0.472549,258.14,0.800047
297.0000,0.498882,258.035,0.798784
296.0000,0.498993,257.937,0.797612
295.0000,0.455478,257.789,0.79583
294.0000,0.470108,257.56,0.793089
293.0000,0.362655,257.466,0.791958
292.0000,0.383559,257.363,0.79072
291.0000,0.360011,257.283,0.789755
290.0000,0.277712,257.2,0.788764
289.0000,0.289511,257.138,0.788015
288.0000,0.278558,257.112,0.787708
287.0000,0.312296,257.084,0.787371
286.0000,0.339019,257.01,0.786481
285.0000,0.335437,256.927,0.785475
284.0000,0.33808,256.83,0.78431
283.0000,0.384566,256.713,0.782901
282.0000,0.405786,256.633,0.781936
281.0000,0.435503,256.547,0.780902
280.0000,0.410074,256.476,0.780048
279.0000,0.444932,256.412,0.779271
278.0000,0.442405,256.327,0.778248
277.0000,0.422853,256.261,0.777451
276.0000,0.403425,256.188,0.776577
275.0000,0.360142,256.139,0.77598
274.0000,0.248236,256.07,0.775157
273.0000,0.182987,256.007,0.774391
272.0000,0.141834,255.965,0.773883
271.0000,0.149066,255.947,0.773669
270.0000,0.174916,255.983,0.774103
269.0000,0.197392,256.05,0.774907
268.0000,0.24372,256.117,0.775714
267.0000,0.279219,256.216,0.776915
266.0000,0.317839,256.322,0.778195
265.0000,0.259343,256.468,0.779951
264.0000,0.250913,256.633,0.781935
263.0000,0.196131,256.821,0.784202
262.0000,0.160146,256.981,0.786132
261.0000,0.155366,257.213,0.788913
260.0000,0.205032,257.449,0.791752
259.0000,0.23909,257.682,0.79455
258.0000,0.224818,257.956,0.797836
257.0000,0.229363,258.234,0.801171
256.0000,0.236864,258.461,0.803887
255.0000,0.267729,258.706,0.806823
254.0000,0.187888,258.929,0.809484
253.0000,0.15432,259.138,0.81199
252.0000,0.122042,259.274,0.813608
251.0000,0.15561,259.371,0.814773
250.0000,0.132419,259.472,0.815969
249.0000,0.191072,259.568,0.81712
248.0000,0.212563,259.663,0.818256
247.0000,0.158722,259.74,0.819168
246.0000,0.149851,259.81,0.820011
245.0000,0.167677,259.925,0.821375
244.0000,0.153274,260.123,0.823732
243.0000,0.14199,260.3,0.825839
242.0000,0.0897495,260.555,0.828882
241.0000,0.123802,260.846,0.832332
240.0000,0.121419,261.201,0.836549
239.0000,0.0500864,261.606,0.841357
238.0000,-0.0158075,262.075,0.846905
237.0000,-0.0173827,262.583,0.852916
236.0000,-0.058644,263.163,0.859766
235.0000,-0.125353,263.841,0.867759
234.0000,-0.201,264.38,0.874097
233.0000,-0.169371,264.965,0.880965
232.0000,-0.125304,265.576,0.888123
231.0000,-0.162475,266.316,0.896771
230.0000,-0.220948,267.006,0.904829
229.0000,-0.185929,267.698,0.912879
228.0000,-0.118205,268.422,0.921288
227.0000,-0.165146,269.165,0.929905
226.0000,-0.28439,270.04,0.940019
225.0000,-0.293384,270.781,0.948563
224.0000,-0.250596,271.475,0.956546
223.0000,-0.294133,272.148,0.964274
222.0000,-0.319822,272.776,0.971471
221.0000,-0.369843,273.388,0.978474
220.0000,-0.278898,274.011,0.985591
219.0000,-0.234108,274.513,0.991313
218.0000,-0.303828,275.013,0.997001
217.0000,-0.273042,275.501,1.00255
216.0000,-0.266446,275.998,1.00818
215.0000,-0.253964,276.601,1.01502
214.0000,-0.271818,277.203,1.02182
213.0000,-0.305153,277.866,1.02931
212.0000,-0.336787,278.695,1.03864
211.0000,-0.205132,279.774,1.05076
210.0000,-0.246519,280.931,1.06371
209.0000,-0.317791,282.498,1.08117
208.0000,-0.294774,284.451,1.10283
207.0000,-0.354309,287.06,1.13156
206.0000,-0.289318,289.948,1.16313
205.0000,-0.227423,294.02,1.20718
204.0000,-0.347968,298.637,1.25653
203.0000,-0.220618,305.076,1.32429
202.0000,-0.0731082,312.333,1.39925
201.0000,-0.0614381,321.283,1.48971
200.0000,0.0786379,331.758,1.59296
199.0000,0.126662,345.413,1.72353
198.0000,0.402679,359.387,1.85276
197.0000,0.493513,379.036,2.02751
196.0000,0.523599,397.602,2.18578
195.0000,0.624873,420.957,2.37628
194.0000,0.678816,449.71,2.59894
193.0000,0.663003,480.093,2.82154
192.0000,0.938836,514.744,3.0613
191.0000,1.05336,567.249,3.39975
190.0000,0.936961,620.336,3.7159
189.0000,0.92949,682.47,4.05791
188.0000,0.54203,782.16,4.55474
187.0000,-0.425097,910.298,5.11915
186.0000,-0.68288,987.805,5.42819
185.0000,-1.06583,1047.52,5.65237

##### Extended Information
[Comments]
Sample name
Comment
User
Division
Company,Saint Mary's College

[Detailed Information]
Creation date,3/9/2020 3:08 PM

Data array type,Linear data array * 3
Horizontal axis,Wavelength [nm]
Vertical axis(1),CD [mdeg]
Vertical axis(2),HT [V]
Vertical axis(3),Abs
Start,500 nm
End,185 nm
Data interval,1 nm
Data points,316     

[Measurement Information]
Instrument name,J-1500
Model name,J-1500
Serial No.,B051061638

Detector,PM-539
Detector S/N,B051061638
  Lock-in amp.,X mode
  HT volt,Auto

Accessory,PTC-517
Accessory S/N,B026561646
  Temperature,23.90 C
  Control sensor,Holder
  Monitor sensor,Holder

Measurement date,3/9/2020 3:07 PM

CD Overload detect,1
Photometric mode,CD, HT, Abs
Measure range,500 - 185 nm
Data pitch,1 nm
CD scale,20 mdeg/0.05 dOD
FL scale,20 mdeg/0.05 dOD
D.I.T.,4 sec
Bandwidth,1.00 nm
Start mode,Immediately
Scanning mode,Continuous
Scanning speed,100 nm/min
Baseline correction,None
Shutter control,Auto
Accumulations,1
N2 Flowmeter,Manual


